# E (eV) pdos(E) 
 -8.917  0.475E-07
 -8.817  0.855E-02
 -8.717  0.498E-05
 -8.617  0.179E-17
 -8.517  0.434E-10
 -8.417  0.147E-02
 -8.317  0.478E-02
 -8.217  0.175E-07
 -8.117  0.209E-23
 -8.017  0.000E+00
 -7.917  0.000E+00
 -7.817  0.000E+00
 -7.717  0.000E+00
 -7.617  0.000E+00
 -7.517  0.000E+00
 -7.417  0.000E+00
 -7.317  0.000E+00
 -7.217  0.000E+00
 -7.117  0.000E+00
 -7.017  0.000E+00
 -6.917  0.000E+00
 -6.817  0.000E+00
 -6.717  0.000E+00
 -6.617  0.000E+00
 -6.517  0.000E+00
 -6.417  0.505E-32
 -6.317  0.166E-10
 -6.217  0.148E+00
 -6.117  0.574E+00
 -6.017  0.429E+00
 -5.917  0.205E+00
 -5.817  0.164E+00
 -5.717  0.139E+00
 -5.617  0.140E+00
 -5.517  0.711E-01
 -5.417  0.215E+00
 -5.317  0.158E+00
 -5.217  0.337E-01
 -5.117  0.241E-01
 -5.017  0.624E-01
 -4.917  0.153E+00
 -4.817  0.126E+00
 -4.717  0.130E+00
 -4.617  0.135E+00
 -4.517  0.579E-02
 -4.417  0.634E-01
 -4.317  0.305E-02
 -4.217  0.273E-02
 -4.117  0.334E-01
 -4.017  0.192E-01
 -3.917  0.451E-01
 -3.817  0.292E-06
 -3.717  0.135E-21
 -3.617  0.000E+00
 -3.517  0.000E+00
 -3.417  0.000E+00
 -3.317  0.000E+00
 -3.217  0.000E+00
 -3.117  0.000E+00
 -3.017  0.000E+00
 -2.917  0.000E+00
 -2.817  0.000E+00
 -2.717  0.000E+00
 -2.617  0.000E+00
 -2.517  0.000E+00
 -2.417  0.000E+00
 -2.317  0.000E+00
 -2.217  0.000E+00
 -2.117  0.000E+00
 -2.017  0.000E+00
 -1.917  0.000E+00
 -1.817  0.000E+00
 -1.717  0.000E+00
 -1.617  0.000E+00
 -1.517  0.000E+00
 -1.417  0.000E+00
 -1.317  0.000E+00
 -1.217  0.000E+00
 -1.117  0.000E+00
 -1.017  0.000E+00
 -0.917  0.000E+00
 -0.817  0.000E+00
 -0.717  0.000E+00
 -0.617  0.876E-25
 -0.517  0.139E-06
 -0.417  0.689E+00
 -0.317  0.401E+00
 -0.217  0.126E+01
 -0.117  0.107E+01
 -0.017  0.127E+00
  0.083  0.150E+00
  0.183  0.122E+00
  0.283  0.191E+00
  0.383  0.622E-01
  0.483  0.173E+00
  0.583  0.172E-01
  0.683  0.440E-01
  0.783  0.234E+00
  0.883  0.918E-06
  0.983  0.625E-02
  1.083  0.236E+00
  1.183  0.507E-07
  1.283  0.454E-03
  1.383  0.332E+00
  1.483  0.981E-04
  1.583  0.786E-08
  1.683  0.773E-01
  1.783  0.131E+00
  1.883  0.665E-09
  1.983  0.389E-05
  2.083  0.128E+00
  2.183  0.100E-01
  2.283  0.507E-13
  2.383  0.482E-04
  2.483  0.192E+00
  2.583  0.791E-02
  2.683  0.119E-01
  2.783  0.548E-02
  2.883  0.170E+00
  2.983  0.470E-02
  3.083  0.123E-01
  3.183  0.147E-02
  3.283  0.979E-01
  3.383  0.102E+00
  3.483  0.235E-02
  3.583  0.187E-01
  3.683  0.592E-01
  3.783  0.101E+00
  3.883  0.177E-01
  3.983  0.209E-02
  4.083  0.165E-01
  4.183  0.135E+00
  4.283  0.661E-01
  4.383  0.510E-03
  4.483  0.145E-01
  4.583  0.463E-01
  4.683  0.309E-03
  4.783  0.112E+00
  4.883  0.114E-02
  4.983  0.871E-01
  5.083  0.183E-01
  5.183  0.953E-03
  5.283  0.122E+00
  5.383  0.142E+00
  5.483  0.246E-01
  5.583  0.658E-03
  5.683  0.464E-02
  5.783  0.132E+00
  5.883  0.303E-02
  5.983  0.213E-01
  6.083  0.870E-01
  6.183  0.137E-02
  6.283  0.294E-02
  6.383  0.103E+00
  6.483  0.731E-11
  6.583  0.115E-03
  6.683  0.910E-01
  6.783  0.993E-02
  6.883  0.933E-05
  6.983  0.133E+00
  7.083  0.460E+00
  7.183  0.209E+00
  7.283  0.194E+00
  7.383  0.111E+00
  7.483  0.252E+00
  7.583  0.379E+00
  7.683  0.321E+00
  7.783  0.677E-01
  7.883  0.324E+00
  7.983  0.282E+00
  8.083  0.112E+00
  8.183  0.289E+00
  8.283  0.450E+00
  8.383  0.158E+00
  8.483  0.400E+00
  8.583  0.333E+00
  8.683  0.195E+00
  8.783  0.344E+00
  8.883  0.863E-01
  8.983  0.999E-02
  9.083  0.947E-01
  9.183  0.569E-01
  9.283  0.112E+00
  9.383  0.762E-01
  9.483  0.318E-01
  9.583  0.558E-01
  9.683  0.643E-01
  9.783  0.294E-01
  9.883  0.450E-01
  9.983  0.132E+00
 10.083  0.104E+00
 10.183  0.208E-01
 10.283  0.317E-01
 10.383  0.222E-01
 10.483  0.208E-02
 10.583  0.212E-01
 10.683  0.540E-01
 10.783  0.144E-01
 10.883  0.619E-01
 10.983  0.254E-01
 11.083  0.793E-01
 11.183  0.754E-01
 11.283  0.632E-01
 11.383  0.168E+00
 11.483  0.275E-01
 11.583  0.657E-01
 11.683  0.981E-01
 11.783  0.768E-01
 11.883  0.123E+00
 11.983  0.984E-02
 12.083  0.320E-01
 12.183  0.790E-03
 12.283  0.151E-01
 12.383  0.127E-01
 12.483  0.315E-02
 12.583  0.406E-03
 12.683  0.246E-01
 12.783  0.394E-02
 12.883  0.114E-01
 12.983  0.177E-02
 13.083  0.609E-01
 13.183  0.284E-02
 13.283  0.643E-02
 13.383  0.263E-01
 13.483  0.549E-03
 13.583  0.312E-01
 13.683  0.545E-01
 13.783  0.116E-01
 13.883  0.611E-01
 13.983  0.184E-02
 14.083  0.549E-02
 14.183  0.600E-03
 14.283  0.653E-05
 14.383  0.191E-01
 14.483  0.368E-04
 14.583  0.244E-03
 14.683  0.123E-01
 14.783  0.381E-06
 14.883  0.113E-01
 14.983  0.741E-02
 15.083  0.650E-05
 15.183  0.661E-02
 15.283  0.231E-02
 15.383  0.428E-02
 15.483  0.259E-02
 15.583  0.128E-02
 15.683  0.542E-02
 15.783  0.134E-02
 15.883  0.139E-02
 15.983  0.406E-03
 16.083  0.177E-12
