# E (eV) pdos(E) 
 -8.917  0.672E-05
 -8.817  0.224E+00
 -8.717  0.403E-04
 -8.617  0.330E-16
 -8.517  0.536E-08
 -8.417  0.898E-01
 -8.317  0.498E-01
 -8.217  0.302E-06
 -8.117  0.949E-22
 -8.017  0.000E+00
 -7.917  0.000E+00
 -7.817  0.000E+00
 -7.717  0.000E+00
 -7.617  0.000E+00
 -7.517  0.000E+00
 -7.417  0.000E+00
 -7.317  0.000E+00
 -7.217  0.000E+00
 -7.117  0.000E+00
 -7.017  0.000E+00
 -6.917  0.000E+00
 -6.817  0.000E+00
 -6.717  0.000E+00
 -6.617  0.000E+00
 -6.517  0.000E+00
 -6.417  0.780E-32
 -6.317  0.257E-10
 -6.217  0.229E+00
 -6.117  0.927E+00
 -6.017  0.738E+00
 -5.917  0.372E+00
 -5.817  0.317E+00
 -5.717  0.288E+00
 -5.617  0.309E+00
 -5.517  0.164E+00
 -5.417  0.529E+00
 -5.317  0.420E+00
 -5.217  0.935E-01
 -5.117  0.731E-01
 -5.017  0.199E+00
 -4.917  0.525E+00
 -4.817  0.482E+00
 -4.717  0.520E+00
 -4.617  0.618E+00
 -4.517  0.278E-01
 -4.417  0.400E+00
 -4.317  0.272E-01
 -4.217  0.228E-01
 -4.117  0.456E+00
 -4.017  0.478E+00
 -3.917  0.328E+01
 -3.817  0.330E-03
 -3.717  0.374E-18
 -3.617  0.000E+00
 -3.517  0.000E+00
 -3.417  0.000E+00
 -3.317  0.000E+00
 -3.217  0.000E+00
 -3.117  0.000E+00
 -3.017  0.000E+00
 -2.917  0.000E+00
 -2.817  0.000E+00
 -2.717  0.000E+00
 -2.617  0.000E+00
 -2.517  0.000E+00
 -2.417  0.000E+00
 -2.317  0.000E+00
 -2.217  0.000E+00
 -2.117  0.000E+00
 -2.017  0.000E+00
 -1.917  0.000E+00
 -1.817  0.000E+00
 -1.717  0.000E+00
 -1.617  0.000E+00
 -1.517  0.000E+00
 -1.417  0.000E+00
 -1.317  0.000E+00
 -1.217  0.000E+00
 -1.117  0.000E+00
 -1.017  0.000E+00
 -0.917  0.000E+00
 -0.817  0.000E+00
 -0.717  0.000E+00
 -0.617  0.118E-28
 -0.517  0.352E-10
 -0.417  0.116E-02
 -0.317  0.705E-02
 -0.217  0.401E-01
 -0.117  0.474E-01
 -0.017  0.109E-01
  0.083  0.236E-01
  0.183  0.170E-01
  0.283  0.379E-01
  0.383  0.146E-01
  0.483  0.457E-01
  0.583  0.414E-02
  0.683  0.137E-01
  0.783  0.758E-01
  0.883  0.283E-06
  0.983  0.235E-02
  1.083  0.915E-01
  1.183  0.200E-07
  1.283  0.199E-03
  1.383  0.147E+00
  1.483  0.443E-04
  1.583  0.392E-08
  1.683  0.386E-01
  1.783  0.657E-01
  1.883  0.334E-09
  1.983  0.215E-05
  2.083  0.711E-01
  2.183  0.551E-02
  2.283  0.278E-13
  2.383  0.280E-04
  2.483  0.114E+00
  2.583  0.381E-02
  2.683  0.403E-02
  2.783  0.190E-02
  2.883  0.104E+00
  2.983  0.265E-02
  3.083  0.317E-02
  3.183  0.387E-03
  3.283  0.618E-01
  3.383  0.629E-01
  3.483  0.133E-02
  3.583  0.458E-02
  3.683  0.382E-01
  3.783  0.666E-01
  3.883  0.598E-02
  3.983  0.828E-03
  4.083  0.110E-01
  4.183  0.854E-01
  4.283  0.448E-01
  4.383  0.244E-03
  4.483  0.311E-02
  4.583  0.313E-01
  4.683  0.213E-03
  4.783  0.697E-01
  4.883  0.438E-03
  4.983  0.590E-01
  5.083  0.672E-02
  5.183  0.368E-03
  5.283  0.820E-01
  5.383  0.913E-01
  5.483  0.163E-01
  5.583  0.910E-04
  5.683  0.404E-02
  5.783  0.872E-01
  5.883  0.356E-02
  5.983  0.124E-01
  6.083  0.563E-01
  6.183  0.622E-03
  6.283  0.188E-02
  6.383  0.660E-01
  6.483  0.470E-11
  6.583  0.729E-04
  6.683  0.575E-01
  6.783  0.627E-02
  6.883  0.578E-05
  6.983  0.822E-01
  7.083  0.292E+00
  7.183  0.126E+00
  7.283  0.112E+00
  7.383  0.618E-01
  7.483  0.141E+00
  7.583  0.207E+00
  7.683  0.247E+00
  7.783  0.912E-01
  7.883  0.250E-01
  7.983  0.105E+00
  8.083  0.436E-01
  8.183  0.108E+00
  8.283  0.203E+00
  8.383  0.885E-01
  8.483  0.142E+00
  8.583  0.111E+00
  8.683  0.122E+00
  8.783  0.139E+00
  8.883  0.873E-01
  8.983  0.551E-02
  9.083  0.439E-01
  9.183  0.184E+00
  9.283  0.175E+00
  9.383  0.380E-01
  9.483  0.229E-01
  9.583  0.216E-01
  9.683  0.247E-01
  9.783  0.547E-02
  9.883  0.177E-01
  9.983  0.585E-01
 10.083  0.212E-01
 10.183  0.743E-02
 10.283  0.334E-01
 10.383  0.272E-01
 10.483  0.213E-02
 10.583  0.247E-01
 10.683  0.545E-01
 10.783  0.100E-01
 10.883  0.276E-01
 10.983  0.962E-02
 11.083  0.629E-01
 11.183  0.412E-01
 11.283  0.255E-01
 11.383  0.439E-01
 11.483  0.139E-01
 11.583  0.385E-01
 11.683  0.241E-01
 11.783  0.270E-01
 11.883  0.522E-01
 11.983  0.307E-01
 12.083  0.173E-02
 12.183  0.120E-01
 12.283  0.119E-01
 12.383  0.583E-01
 12.483  0.250E-01
 12.583  0.352E-04
 12.683  0.180E-01
 12.783  0.184E-01
 12.883  0.593E-01
 12.983  0.221E-01
 13.083  0.481E-01
 13.183  0.117E-01
 13.283  0.506E-01
 13.383  0.302E-01
 13.483  0.239E-01
 13.583  0.661E-01
 13.683  0.676E-01
 13.783  0.489E-02
 13.883  0.528E-01
 13.983  0.926E-03
 14.083  0.372E-02
 14.183  0.307E-03
 14.283  0.269E-04
 14.383  0.121E-01
 14.483  0.204E-04
 14.583  0.883E-04
 14.683  0.518E-02
 14.783  0.146E-06
 14.883  0.671E-02
 14.983  0.234E-02
 15.083  0.715E-05
 15.183  0.266E-02
 15.283  0.768E-03
 15.383  0.193E-02
 15.483  0.516E-03
 15.583  0.585E-03
 15.683  0.161E-02
 15.783  0.867E-03
 15.883  0.235E-03
 15.983  0.196E-04
 16.083  0.676E-10
