#  E (eV)   dos(E)     Int dos(E) EFermi =    6.313 eV
 -20.000  0.7460E-84  0.7460E-85
 -19.900  0.7460E-84  0.1492E-84
 -19.800  0.7460E-84  0.2238E-84
 -19.700  0.7460E-84  0.2984E-84
 -19.600  0.7460E-84  0.3730E-84
 -19.500  0.7460E-84  0.4476E-84
 -19.400  0.7460E-84  0.5222E-84
 -19.300  0.7460E-84  0.5968E-84
 -19.200  0.7460E-84  0.6714E-84
 -19.100  0.7460E-84  0.7460E-84
 -19.000  0.7460E-84  0.8206E-84
 -18.900  0.7460E-84  0.8952E-84
 -18.800  0.7460E-84  0.9698E-84
 -18.700  0.7460E-84  0.1044E-83
 -18.600  0.7460E-84  0.1119E-83
 -18.500  0.7460E-84  0.1194E-83
 -18.400  0.7460E-84  0.1268E-83
 -18.300  0.7460E-84  0.1343E-83
 -18.200  0.7460E-84  0.1417E-83
 -18.100  0.7460E-84  0.1492E-83
 -18.000  0.7460E-84  0.1567E-83
 -17.900  0.7460E-84  0.1641E-83
 -17.800  0.7460E-84  0.1716E-83
 -17.700  0.7460E-84  0.1790E-83
 -17.600  0.7460E-84  0.1865E-83
 -17.500  0.7460E-84  0.1940E-83
 -17.400  0.7460E-84  0.2014E-83
 -17.300  0.7460E-84  0.2089E-83
 -17.200  0.7460E-84  0.2163E-83
 -17.100  0.7460E-84  0.2238E-83
 -17.000  0.7460E-84  0.2313E-83
 -16.900  0.7460E-84  0.2387E-83
 -16.800  0.7460E-84  0.2462E-83
 -16.700  0.7460E-84  0.2536E-83
 -16.600  0.7460E-84  0.2611E-83
 -16.500  0.7460E-84  0.2686E-83
 -16.400  0.7460E-84  0.2760E-83
 -16.300  0.7460E-84  0.2835E-83
 -16.200  0.7460E-84  0.2909E-83
 -16.100  0.7460E-84  0.2984E-83
 -16.000  0.7460E-84  0.3059E-83
 -15.900  0.7460E-84  0.3133E-83
 -15.800  0.7460E-84  0.3208E-83
 -15.700  0.7460E-84  0.3282E-83
 -15.600  0.7460E-84  0.3357E-83
 -15.500  0.7460E-84  0.3432E-83
 -15.400  0.7460E-84  0.3506E-83
 -15.300  0.7460E-84  0.3581E-83
 -15.200  0.7460E-84  0.3656E-83
 -15.100  0.7460E-84  0.3730E-83
 -15.000  0.7460E-84  0.3805E-83
 -14.900  0.7460E-84  0.3879E-83
 -14.800  0.7460E-84  0.3954E-83
 -14.700  0.7460E-84  0.4029E-83
 -14.600  0.7460E-84  0.4103E-83
 -14.500  0.7460E-84  0.4178E-83
 -14.400  0.7460E-84  0.4252E-83
 -14.300  0.7460E-84  0.4327E-83
 -14.200  0.7460E-84  0.4402E-83
 -14.100  0.7460E-84  0.4476E-83
 -14.000  0.7460E-84  0.4551E-83
 -13.900  0.7460E-84  0.4625E-83
 -13.800  0.7460E-84  0.4700E-83
 -13.700  0.7460E-84  0.4775E-83
 -13.600  0.7460E-84  0.4849E-83
 -13.500  0.7460E-84  0.4924E-83
 -13.400  0.7460E-84  0.4998E-83
 -13.300  0.7460E-84  0.5073E-83
 -13.200  0.7460E-84  0.5148E-83
 -13.100  0.7460E-84  0.5222E-83
 -13.000  0.7460E-84  0.5297E-83
 -12.900  0.7460E-84  0.5371E-83
 -12.800  0.7460E-84  0.5446E-83
 -12.700  0.7460E-84  0.5521E-83
 -12.600  0.7460E-84  0.5595E-83
 -12.500  0.7460E-84  0.5670E-83
 -12.400  0.7460E-84  0.5744E-83
 -12.300  0.7460E-84  0.5819E-83
 -12.200  0.7460E-84  0.5894E-83
 -12.100  0.7460E-84  0.5968E-83
 -12.000  0.7460E-84  0.6043E-83
 -11.900  0.7460E-84  0.6117E-83
 -11.800  0.7460E-84  0.6192E-83
 -11.700  0.7460E-84  0.6267E-83
 -11.600  0.7460E-84  0.6341E-83
 -11.500  0.7460E-84  0.6416E-83
 -11.400  0.7460E-84  0.6490E-83
 -11.300  0.7460E-84  0.6565E-83
 -11.200  0.7460E-84  0.6640E-83
 -11.100  0.7460E-84  0.6714E-83
 -11.000  0.7460E-84  0.6789E-83
 -10.900  0.7460E-84  0.6863E-83
 -10.800  0.7460E-84  0.6938E-83
 -10.700  0.7460E-84  0.7013E-83
 -10.600  0.7460E-84  0.7087E-83
 -10.500  0.7460E-84  0.7162E-83
 -10.400  0.7460E-84  0.7236E-83
 -10.300  0.7460E-84  0.7311E-83
 -10.200  0.7460E-84  0.7386E-83
 -10.100  0.7460E-84  0.7460E-83
 -10.000  0.7460E-84  0.7535E-83
  -9.900  0.7460E-84  0.7609E-83
  -9.800  0.7460E-84  0.7684E-83
  -9.700  0.7460E-84  0.7759E-83
  -9.600  0.7460E-84  0.7833E-83
  -9.500  0.7460E-84  0.7908E-83
  -9.400  0.7460E-84  0.7982E-83
  -9.300  0.7460E-84  0.8057E-83
  -9.200  0.2176E-77  0.2176E-78
  -9.100  0.2025E-40  0.2025E-41
  -9.000  0.3742E-15  0.3742E-16
  -8.900  0.1547E-01  0.1547E-02
  -8.800  0.5544E+02  0.5546E+01
  -8.700  0.3040E-01  0.5549E+01
  -8.600  0.5691E-15  0.5549E+01
  -8.500  0.3477E-04  0.5549E+01
  -8.400  0.1256E+02  0.6805E+01
  -8.300  0.6669E+02  0.1347E+02
  -8.200  0.4660E-04  0.1347E+02
  -8.100  0.2124E-21  0.1347E+02
  -8.000  0.2274E-50  0.1347E+02
  -7.900  0.7460E-84  0.1347E+02
  -7.800  0.7460E-84  0.1347E+02
  -7.700  0.7460E-84  0.1347E+02
  -7.600  0.7460E-84  0.1347E+02
  -7.500  0.7460E-84  0.1347E+02
  -7.400  0.7460E-84  0.1347E+02
  -7.300  0.7460E-84  0.1347E+02
  -7.200  0.7460E-84  0.1347E+02
  -7.100  0.7460E-84  0.1347E+02
  -7.000  0.7460E-84  0.1347E+02
  -6.900  0.7460E-84  0.1347E+02
  -6.800  0.7460E-84  0.1347E+02
  -6.700  0.7460E-84  0.1347E+02
  -6.600  0.7460E-84  0.1347E+02
  -6.500  0.2571E-58  0.1347E+02
  -6.400  0.4246E-27  0.1347E+02
  -6.300  0.1400E-07  0.1347E+02
  -6.200  0.1448E+01  0.1362E+02
  -6.100  0.1537E+01  0.1377E+02
  -6.000  0.7811E+00  0.1385E+02
  -5.900  0.2955E+00  0.1388E+02
  -5.800  0.3255E+00  0.1391E+02
  -5.700  0.5790E+00  0.1397E+02
  -5.600  0.3795E+00  0.1401E+02
  -5.500  0.3136E+00  0.1404E+02
  -5.400  0.7041E+00  0.1411E+02
  -5.300  0.7585E+00  0.1419E+02
  -5.200  0.2035E+00  0.1421E+02
  -5.100  0.2740E+00  0.1423E+02
  -5.000  0.4088E+00  0.1428E+02
  -4.900  0.8198E+00  0.1436E+02
  -4.800  0.9917E+00  0.1446E+02
  -4.700  0.6040E+00  0.1452E+02
  -4.600  0.1017E+01  0.1462E+02
  -4.500  0.8386E-02  0.1462E+02
  -4.400  0.5442E+00  0.1467E+02
  -4.300  0.2638E+00  0.1470E+02
  -4.200  0.1014E-01  0.1470E+02
  -4.100  0.3336E+00  0.1473E+02
  -4.000  0.1812E+01  0.1492E+02
  -3.900  0.3656E+01  0.1528E+02
  -3.800  0.8548E-05  0.1528E+02
  -3.700  0.9872E-22  0.1528E+02
  -3.600  0.2401E-50  0.1528E+02
  -3.500  0.7460E-84  0.1528E+02
  -3.400  0.7460E-84  0.1528E+02
  -3.300  0.7460E-84  0.1528E+02
  -3.200  0.7460E-84  0.1528E+02
  -3.100  0.7460E-84  0.1528E+02
  -3.000  0.7460E-84  0.1528E+02
  -2.900  0.7460E-84  0.1528E+02
  -2.800  0.7460E-84  0.1528E+02
  -2.700  0.7460E-84  0.1528E+02
  -2.600  0.7460E-84  0.1528E+02
  -2.500  0.7460E-84  0.1528E+02
  -2.400  0.7460E-84  0.1528E+02
  -2.300  0.7460E-84  0.1528E+02
  -2.200  0.7460E-84  0.1528E+02
  -2.100  0.7460E-84  0.1528E+02
  -2.000  0.7460E-84  0.1528E+02
  -1.900  0.7460E-84  0.1528E+02
  -1.800  0.7460E-84  0.1528E+02
  -1.700  0.7460E-84  0.1528E+02
  -1.600  0.7460E-84  0.1528E+02
  -1.500  0.7460E-84  0.1528E+02
  -1.400  0.7460E-84  0.1528E+02
  -1.300  0.7460E-84  0.1528E+02
  -1.200  0.7460E-84  0.1528E+02
  -1.100  0.7460E-84  0.1528E+02
  -1.000  0.7460E-84  0.1528E+02
  -0.900  0.7460E-84  0.1528E+02
  -0.800  0.7460E-84  0.1528E+02
  -0.700  0.1902E-48  0.1528E+02
  -0.600  0.1484E-20  0.1528E+02
  -0.500  0.2368E-04  0.1528E+02
  -0.400  0.1796E+01  0.1546E+02
  -0.300  0.8462E+00  0.1555E+02
  -0.200  0.3134E+01  0.1586E+02
  -0.100  0.1876E+01  0.1605E+02
   0.000  0.2071E+00  0.1607E+02
   0.100  0.3447E+00  0.1610E+02
   0.200  0.7816E-01  0.1611E+02
   0.300  0.3322E+00  0.1614E+02
   0.400  0.3753E+00  0.1618E+02
   0.500  0.7812E+00  0.1626E+02
   0.600  0.5483E-02  0.1626E+02
   0.700  0.3591E+00  0.1629E+02
   0.800  0.4209E+00  0.1634E+02
   0.900  0.2309E-07  0.1634E+02
   1.000  0.1210E+00  0.1635E+02
   1.100  0.3425E+00  0.1638E+02
   1.200  0.9102E-09  0.1638E+02
   1.300  0.1664E-01  0.1638E+02
   1.400  0.1065E+01  0.1649E+02
   1.500  0.7872E-05  0.1649E+02
   1.600  0.2681E-05  0.1649E+02
   1.700  0.3539E+00  0.1653E+02
   1.800  0.1060E+00  0.1654E+02
   1.900  0.6591E-11  0.1654E+02
   2.000  0.4620E-03  0.1654E+02
   2.100  0.6255E+00  0.1660E+02
   2.200  0.2762E-02  0.1660E+02
   2.300  0.9228E-11  0.1660E+02
   2.400  0.5982E-01  0.1661E+02
   2.500  0.2550E+01  0.1686E+02
   2.600  0.1151E+01  0.1698E+02
   2.700  0.6787E+00  0.1704E+02
   2.800  0.1396E+00  0.1706E+02
   2.900  0.1263E+01  0.1718E+02
   3.000  0.1383E+00  0.1720E+02
   3.100  0.2561E+00  0.1722E+02
   3.200  0.9798E-01  0.1723E+02
   3.300  0.8403E+00  0.1732E+02
   3.400  0.1533E+01  0.1747E+02
   3.500  0.1303E+01  0.1760E+02
   3.600  0.1722E+01  0.1777E+02
   3.700  0.2439E+01  0.1802E+02
   3.800  0.1682E+01  0.1819E+02
   3.900  0.1074E+01  0.1829E+02
   4.000  0.8031E+00  0.1837E+02
   4.100  0.1611E+01  0.1853E+02
   4.200  0.1671E+01  0.1870E+02
   4.300  0.6892E+00  0.1877E+02
   4.400  0.4493E+00  0.1882E+02
   4.500  0.8822E+00  0.1890E+02
   4.600  0.6539E+00  0.1897E+02
   4.700  0.2200E+00  0.1899E+02
   4.800  0.1009E+01  0.1909E+02
   4.900  0.3426E+00  0.1913E+02
   5.000  0.7726E+00  0.1920E+02
   5.100  0.1773E+01  0.1938E+02
   5.200  0.9627E+00  0.1948E+02
   5.300  0.2041E+01  0.1968E+02
   5.400  0.1708E+01  0.1985E+02
   5.500  0.1112E+01  0.1996E+02
   5.600  0.7970E+00  0.2004E+02
   5.700  0.1642E+01  0.2021E+02
   5.800  0.1851E+01  0.2039E+02
   5.900  0.1236E+01  0.2052E+02
   6.000  0.2787E+01  0.2079E+02
   6.100  0.1945E+01  0.2099E+02
   6.200  0.1061E+01  0.2109E+02
   6.300  0.3165E+01  0.2141E+02
   6.400  0.2102E-01  0.2141E+02
   6.500  0.1675E-13  0.2141E+02
   6.600  0.6783E-02  0.2141E+02
   6.700  0.3683E+00  0.2145E+02
   6.800  0.2079E-02  0.2145E+02
   6.900  0.9504E-03  0.2145E+02
   7.000  0.1643E+00  0.2147E+02
   7.100  0.1184E+01  0.2159E+02
   7.200  0.5932E+00  0.2165E+02
   7.300  0.3142E+00  0.2168E+02
   7.400  0.6865E+00  0.2175E+02
   7.500  0.3900E+00  0.2178E+02
   7.600  0.1252E+01  0.2191E+02
   7.700  0.1730E+01  0.2208E+02
   7.800  0.3677E+00  0.2212E+02
   7.900  0.1160E+01  0.2224E+02
   8.000  0.8330E+00  0.2232E+02
   8.100  0.8529E+00  0.2240E+02
   8.200  0.6644E+00  0.2247E+02
   8.300  0.1881E+01  0.2266E+02
   8.400  0.1029E+01  0.2276E+02
   8.500  0.1687E+01  0.2293E+02
   8.600  0.1470E+01  0.2308E+02
   8.700  0.9807E+00  0.2317E+02
   8.800  0.1194E+01  0.2329E+02
   8.900  0.3967E+00  0.2333E+02
   9.000  0.3599E-01  0.2334E+02
   9.100  0.3376E+00  0.2337E+02
   9.200  0.7779E+00  0.2345E+02
   9.300  0.1132E+01  0.2356E+02
   9.400  0.3551E+00  0.2360E+02
   9.500  0.2675E+00  0.2362E+02
   9.600  0.7505E+00  0.2370E+02
   9.700  0.4245E+00  0.2374E+02
   9.800  0.1618E+01  0.2390E+02
   9.900  0.1249E+01  0.2403E+02
  10.000  0.4549E+01  0.2448E+02
  10.100  0.1940E+01  0.2468E+02
  10.200  0.1069E+01  0.2478E+02
  10.300  0.2077E+01  0.2499E+02
  10.400  0.1594E+01  0.2515E+02
  10.500  0.1071E+01  0.2526E+02
  10.600  0.1071E+01  0.2537E+02
  10.700  0.1383E+01  0.2550E+02
  10.800  0.2543E+01  0.2576E+02
  10.900  0.2220E+01  0.2598E+02
  11.000  0.1141E+00  0.2599E+02
  11.100  0.1214E+01  0.2611E+02
  11.200  0.2676E+00  0.2614E+02
  11.300  0.7691E+00  0.2622E+02
  11.400  0.1219E+01  0.2634E+02
  11.500  0.1231E+01  0.2646E+02
  11.600  0.4953E+00  0.2651E+02
  11.700  0.1322E+01  0.2664E+02
  11.800  0.7173E+00  0.2672E+02
  11.900  0.1250E+01  0.2684E+02
  12.000  0.3913E+00  0.2688E+02
  12.100  0.3726E-01  0.2688E+02
  12.200  0.3791E+00  0.2692E+02
  12.300  0.4459E+00  0.2697E+02
  12.400  0.5181E+00  0.2702E+02
  12.500  0.2609E+00  0.2704E+02
  12.600  0.6479E+00  0.2711E+02
  12.700  0.4713E+00  0.2716E+02
  12.800  0.7392E-01  0.2716E+02
  12.900  0.7971E+00  0.2724E+02
  13.000  0.8169E+00  0.2732E+02
  13.100  0.8547E+00  0.2741E+02
  13.200  0.2903E-01  0.2741E+02
  13.300  0.7550E+00  0.2749E+02
  13.400  0.9541E+00  0.2758E+02
  13.500  0.6774E-01  0.2759E+02
  13.600  0.1052E+01  0.2770E+02
  13.700  0.8901E+00  0.2778E+02
  13.800  0.6713E+00  0.2785E+02
  13.900  0.1936E+01  0.2805E+02
  14.000  0.3081E-01  0.2805E+02
  14.100  0.3043E+00  0.2808E+02
  14.200  0.3293E+00  0.2811E+02
  14.300  0.2124E+00  0.2813E+02
  14.400  0.8226E+00  0.2822E+02
  14.500  0.2699E-04  0.2822E+02
  14.600  0.3865E+00  0.2825E+02
  14.700  0.5224E+00  0.2831E+02
  14.800  0.1624E-04  0.2831E+02
  14.900  0.5902E+00  0.2837E+02
  15.000  0.5605E+00  0.2842E+02
  15.100  0.8131E-01  0.2843E+02
  15.200  0.2120E+00  0.2845E+02
  15.300  0.2531E+00  0.2848E+02
  15.400  0.6281E+00  0.2854E+02
  15.500  0.1846E-01  0.2854E+02
  15.600  0.2636E+00  0.2857E+02
  15.700  0.7036E+00  0.2864E+02
  15.800  0.2890E+00  0.2867E+02
  15.900  0.7636E+00  0.2874E+02
  16.000  0.5065E+00  0.2879E+02
  16.100  0.1279E-06  0.2879E+02
  16.200  0.6254E-25  0.2879E+02
  16.300  0.5687E-55  0.2879E+02
  16.400  0.7460E-84  0.2879E+02
  16.500  0.7460E-84  0.2879E+02
  16.600  0.7460E-84  0.2879E+02
  16.700  0.7460E-84  0.2879E+02
  16.800  0.7460E-84  0.2879E+02
  16.900  0.7460E-84  0.2879E+02
  17.000  0.7460E-84  0.2879E+02
  17.100  0.7460E-84  0.2879E+02
  17.200  0.7460E-84  0.2879E+02
  17.300  0.7460E-84  0.2879E+02
  17.400  0.7460E-84  0.2879E+02
  17.500  0.7460E-84  0.2879E+02
  17.600  0.7460E-84  0.2879E+02
  17.700  0.7460E-84  0.2879E+02
  17.800  0.7460E-84  0.2879E+02
  17.900  0.7460E-84  0.2879E+02
  18.000  0.7460E-84  0.2879E+02
  18.100  0.7460E-84  0.2879E+02
  18.200  0.7460E-84  0.2879E+02
  18.300  0.7460E-84  0.2879E+02
  18.400  0.7460E-84  0.2879E+02
  18.500  0.7460E-84  0.2879E+02
  18.600  0.7460E-84  0.2879E+02
  18.700  0.7460E-84  0.2879E+02
  18.800  0.7460E-84  0.2879E+02
  18.900  0.7460E-84  0.2879E+02
  19.000  0.7460E-84  0.2879E+02
  19.100  0.7460E-84  0.2879E+02
  19.200  0.7460E-84  0.2879E+02
  19.300  0.7460E-84  0.2879E+02
  19.400  0.7460E-84  0.2879E+02
  19.500  0.7460E-84  0.2879E+02
  19.600  0.7460E-84  0.2879E+02
  19.700  0.7460E-84  0.2879E+02
  19.800  0.7460E-84  0.2879E+02
  19.900  0.7460E-84  0.2879E+02
  20.000  0.7460E-84  0.2879E+02
