# E (eV)  dos(E)    pdos(E)
  -8.917  0.472E-03  0.472E-03
  -8.817  0.343E+02  0.343E+02
  -8.717  0.516E+00  0.516E+00
  -8.617  0.832E-12  0.832E-12
  -8.517  0.315E-06  0.315E-06
  -8.417  0.597E+01  0.596E+01
  -8.317  0.757E+02  0.756E+02
  -8.217  0.308E-02  0.308E-02
  -8.117  0.132E-17  0.132E-17
  -8.017  0.000E+00  0.000E+00
  -7.917  0.000E+00  0.000E+00
  -7.817  0.000E+00  0.000E+00
  -7.717  0.000E+00  0.000E+00
  -7.617  0.000E+00  0.000E+00
  -7.517  0.000E+00  0.000E+00
  -7.417  0.000E+00  0.000E+00
  -7.317  0.000E+00  0.000E+00
  -7.217  0.000E+00  0.000E+00
  -7.117  0.000E+00  0.000E+00
  -7.017  0.000E+00  0.000E+00
  -6.917  0.000E+00  0.000E+00
  -6.817  0.000E+00  0.000E+00
  -6.717  0.000E+00  0.000E+00
  -6.617  0.000E+00  0.000E+00
  -6.517  0.000E+00  0.000E+00
  -6.417  0.129E-31  0.128E-31
  -6.317  0.425E-10  0.423E-10
  -6.217  0.378E+00  0.377E+00
  -6.117  0.157E+01  0.157E+01
  -6.017  0.129E+01  0.129E+01
  -5.917  0.664E+00  0.662E+00
  -5.817  0.576E+00  0.574E+00
  -5.717  0.530E+00  0.528E+00
  -5.617  0.572E+00  0.570E+00
  -5.517  0.303E+00  0.302E+00
  -5.417  0.974E+00  0.971E+00
  -5.317  0.774E+00  0.772E+00
  -5.217  0.171E+00  0.170E+00
  -5.117  0.133E+00  0.132E+00
  -5.017  0.353E+00  0.352E+00
  -4.917  0.915E+00  0.912E+00
  -4.817  0.830E+00  0.827E+00
  -4.717  0.874E+00  0.872E+00
  -4.617  0.103E+01  0.102E+01
  -4.517  0.458E-01  0.457E-01
  -4.417  0.653E+00  0.651E+00
  -4.317  0.431E-01  0.430E-01
  -4.217  0.358E-01  0.357E-01
  -4.117  0.695E+00  0.693E+00
  -4.017  0.702E+00  0.700E+00
  -3.917  0.470E+01  0.469E+01
  -3.817  0.468E-03  0.467E-03
  -3.717  0.530E-18  0.529E-18
  -3.617  0.000E+00  0.000E+00
  -3.517  0.000E+00  0.000E+00
  -3.417  0.000E+00  0.000E+00
  -3.317  0.000E+00  0.000E+00
  -3.217  0.000E+00  0.000E+00
  -3.117  0.000E+00  0.000E+00
  -3.017  0.000E+00  0.000E+00
  -2.917  0.000E+00  0.000E+00
  -2.817  0.000E+00  0.000E+00
  -2.717  0.000E+00  0.000E+00
  -2.617  0.000E+00  0.000E+00
  -2.517  0.000E+00  0.000E+00
  -2.417  0.000E+00  0.000E+00
  -2.317  0.000E+00  0.000E+00
  -2.217  0.000E+00  0.000E+00
  -2.117  0.000E+00  0.000E+00
  -2.017  0.000E+00  0.000E+00
  -1.917  0.000E+00  0.000E+00
  -1.817  0.000E+00  0.000E+00
  -1.717  0.000E+00  0.000E+00
  -1.617  0.000E+00  0.000E+00
  -1.517  0.000E+00  0.000E+00
  -1.417  0.000E+00  0.000E+00
  -1.317  0.000E+00  0.000E+00
  -1.217  0.000E+00  0.000E+00
  -1.117  0.000E+00  0.000E+00
  -1.017  0.000E+00  0.000E+00
  -0.917  0.000E+00  0.000E+00
  -0.817  0.000E+00  0.000E+00
  -0.717  0.000E+00  0.000E+00
  -0.617  0.167E-24  0.166E-24
  -0.517  0.266E-06  0.264E-06
  -0.417  0.131E+01  0.130E+01
  -0.317  0.764E+00  0.760E+00
  -0.217  0.251E+01  0.250E+01
  -0.117  0.208E+01  0.207E+01
  -0.017  0.270E+00  0.269E+00
   0.083  0.455E+00  0.451E+00
   0.183  0.270E+00  0.269E+00
   0.283  0.536E+00  0.532E+00
   0.383  0.144E+00  0.143E+00
   0.483  0.529E+00  0.525E+00
   0.583  0.436E-01  0.435E-01
   0.683  0.107E+00  0.106E+00
   0.783  0.731E+00  0.726E+00
   0.883  0.250E-05  0.249E-05
   0.983  0.176E-01  0.176E-01
   1.083  0.764E+00  0.759E+00
   1.183  0.178E-06  0.176E-06
   1.283  0.139E-02  0.139E-02
   1.383  0.974E+00  0.970E+00
   1.483  0.354E-03  0.351E-03
   1.583  0.253E-07  0.252E-07
   1.683  0.249E+00  0.248E+00
   1.783  0.442E+00  0.440E+00
   1.883  0.245E-08  0.243E-08
   1.983  0.131E-04  0.131E-04
   2.083  0.424E+00  0.423E+00
   2.183  0.362E-01  0.360E-01
   2.283  0.203E-12  0.202E-12
   2.383  0.822E-02  0.815E-02
   2.483  0.177E+01  0.176E+01
   2.583  0.142E+01  0.141E+01
   2.683  0.723E+00  0.718E+00
   2.783  0.404E+00  0.401E+00
   2.883  0.797E+00  0.793E+00
   2.983  0.837E-01  0.833E-01
   3.083  0.285E+00  0.283E+00
   3.183  0.756E-01  0.752E-01
   3.283  0.435E+00  0.433E+00
   3.383  0.161E+01  0.160E+01
   3.483  0.122E+01  0.122E+01
   3.583  0.157E+01  0.156E+01
   3.683  0.198E+01  0.197E+01
   3.783  0.169E+01  0.168E+01
   3.883  0.153E+01  0.152E+01
   3.983  0.129E+01  0.129E+01
   4.083  0.199E+01  0.199E+01
   4.183  0.151E+01  0.151E+01
   4.283  0.325E+00  0.324E+00
   4.383  0.520E+00  0.519E+00
   4.483  0.110E+01  0.110E+01
   4.583  0.432E+00  0.430E+00
   4.683  0.379E+00  0.378E+00
   4.783  0.117E+01  0.117E+01
   4.883  0.238E+00  0.237E+00
   4.983  0.503E+00  0.501E+00
   5.083  0.155E+01  0.155E+01
   5.183  0.681E+00  0.679E+00
   5.283  0.212E+01  0.211E+01
   5.383  0.192E+01  0.192E+01
   5.483  0.105E+01  0.104E+01
   5.583  0.831E+00  0.828E+00
   5.683  0.210E+01  0.209E+01
   5.783  0.158E+01  0.157E+01
   5.883  0.137E+01  0.136E+01
   5.983  0.293E+01  0.291E+01
   6.083  0.213E+01  0.212E+01
   6.183  0.130E+01  0.129E+01
   6.283  0.283E+01  0.281E+01
   6.383  0.170E+00  0.169E+00
   6.483  0.121E-10  0.120E-10
   6.583  0.332E-03  0.331E-03
   6.683  0.265E+00  0.263E+00
   6.783  0.292E-01  0.291E-01
   6.883  0.272E-04  0.270E-04
   6.983  0.386E+00  0.384E+00
   7.083  0.123E+01  0.120E+01
   7.183  0.562E+00  0.552E+00
   7.283  0.514E+00  0.505E+00
   7.383  0.299E+00  0.295E+00
   7.483  0.701E+00  0.693E+00
   7.583  0.107E+01  0.106E+01
   7.683  0.177E+01  0.165E+01
   7.783  0.526E+00  0.493E+00
   7.883  0.961E+00  0.822E+00
   7.983  0.102E+01  0.919E+00
   8.083  0.464E+00  0.423E+00
   8.183  0.119E+01  0.111E+01
   8.283  0.178E+01  0.163E+01
   8.383  0.843E+00  0.766E+00
   8.483  0.169E+01  0.152E+01
   8.583  0.137E+01  0.128E+01
   8.683  0.103E+01  0.889E+00
   8.783  0.136E+01  0.128E+01
   8.883  0.661E+00  0.541E+00
   8.983  0.602E-01  0.533E-01
   9.083  0.472E+00  0.377E+00
   9.183  0.100E+01  0.939E+00
   9.283  0.123E+01  0.115E+01
   9.383  0.379E+00  0.320E+00
   9.483  0.270E+00  0.241E+00
   9.583  0.542E+00  0.509E+00
   9.683  0.348E+00  0.294E+00
   9.783  0.239E+01  0.230E+01
   9.883  0.920E+00  0.880E+00
   9.983  0.497E+01  0.474E+01
  10.083  0.187E+01  0.179E+01
  10.183  0.113E+01  0.108E+01
  10.283  0.216E+01  0.207E+01
  10.383  0.141E+01  0.134E+01
  10.483  0.100E+01  0.955E+00
  10.583  0.119E+01  0.112E+01
  10.683  0.110E+01  0.971E+00
  10.783  0.393E+01  0.345E+01
  10.883  0.342E+01  0.293E+01
  10.983  0.417E+00  0.379E+00
  11.083  0.118E+01  0.104E+01
  11.183  0.862E+00  0.793E+00
  11.283  0.837E+00  0.724E+00
  11.383  0.138E+01  0.117E+01
  11.483  0.101E+01  0.897E+00
  11.583  0.576E+00  0.484E+00
  11.683  0.126E+01  0.105E+01
  11.783  0.818E+00  0.622E+00
  11.883  0.134E+01  0.110E+01
  11.983  0.350E+00  0.303E+00
  12.083  0.154E+00  0.132E+00
  12.183  0.159E+00  0.139E+00
  12.283  0.258E+00  0.236E+00
  12.383  0.604E+00  0.473E+00
  12.483  0.202E+00  0.163E+00
  12.583  0.553E+00  0.505E+00
  12.683  0.237E+00  0.212E+00
  12.783  0.143E+00  0.115E+00
  12.883  0.857E+00  0.681E+00
  12.983  0.625E+00  0.305E+00
  13.083  0.745E+00  0.546E+00
  13.183  0.181E+00  0.813E-01
  13.283  0.982E+00  0.820E+00
  13.383  0.923E+00  0.582E+00
  13.483  0.296E+00  0.257E+00
  13.583  0.109E+01  0.628E+00
  13.683  0.124E+01  0.873E+00
  13.783  0.398E+00  0.255E+00
  13.883  0.182E+01  0.111E+01
  13.983  0.475E-01  0.137E-01
  14.083  0.206E+00  0.146E+00
  14.183  0.105E+00  0.893E-01
  14.283  0.467E+00  0.417E+00
  14.383  0.536E+00  0.349E+00
  14.483  0.955E-03  0.610E-03
  14.583  0.131E+00  0.114E+00
  14.683  0.794E+00  0.634E+00
  14.783  0.923E-05  0.600E-05
  14.883  0.438E+00  0.310E+00
  14.983  0.569E+00  0.465E+00
  15.083  0.301E+00  0.269E+00
  15.183  0.236E+00  0.176E+00
  15.283  0.959E-01  0.706E-01
  15.383  0.433E+00  0.367E+00
  15.483  0.971E-01  0.748E-01
  15.583  0.988E-01  0.843E-01
  15.683  0.629E+00  0.547E+00
  15.783  0.243E+00  0.220E+00
  15.883  0.562E+00  0.520E+00
  15.983  0.571E+00  0.542E+00
  16.083  0.117E-04  0.111E-04
